File: doc/examples/KFe2As2-00838_fit2d.chi
C:\incoming\KFe2As2-00838.tif: 2-theta Scan
2-Theta Angle (Degrees)

       2048
 0.133212  1620.54
 0.276671  3833.3
 0.42013  11298.5
 0.563589  10738.5
 0.707048  10849.8
 0.850507  48104.2
 0.993966  12484.7
 1.13743  8437.94
 1.28088  7744.3
 1.42434  7092.4
 1.5678  7169.66
 1.71126  14653.2
 1.85472  7177.58
 1.99818  12473.6
 2.14164  60742.2
 2.2851  13257.8
 2.42856  26342.1
 2.57202  8026.67
 2.71547  10698.8
 2.85893  35209.4
 3.00239  11981.9
 3.14585  13881.9
 3.28931  23650.6
 3.43277  13588.5
 3.57623  37818.5
 3.71969  7561.42
 3.86315  32976.7
 4.00661  5410.03
 4.15006  5220.83
 4.29352  8713.59
 4.43698  7727.04
 4.58044  16919.3
 4.7239  9910.86
 4.86736  12527.1
 5.01082  10782.3
 5.15428  11537.1
 5.29774  8545.87
 5.4412  18445.1
 5.58466  7951.93
 5.72811  17931.4
 5.87157  9742.17
 6.01503  10399.4
 6.15849  7462.55
 6.30195  7688.11
 6.44541  9696.41
 6.58887  7727.76
 6.73233  8991.87
 6.87579  7776.42
 7.01925  7343.6
 7.1627  7467.96
 7.30616  8765.7
 7.44962  6403.5
 7.59308  5932.02
 7.73654  5807.98
 7.88  5999.36
 8.02346  8701.02
 8.16692  8520.02
 8.31038  6604.56
 8.45384  8631.95
 8.59729  6453.31
 8.74075  6785.27
 8.88421  5202.41
 9.02767  5836.7
 9.17113  5057.35
 9.31459  5309.7
 9.45805  5493.29
 9.60151  6351.7
 9.74497  5523.18
 9.88843  5404.74
 10.0319  5386.97
 10.1753  5510.7
 10.3188  5826.11
 10.4623  4796.89
 10.6057  4319.56
 10.7492  4428.71
 10.8926  5213.9
 11.0361  5398.4
 11.1796  4859.32
 11.323  4723.65
 11.4665  5163.82
 11.6099  5224.37
 11.7534  4869.06
 11.8969  4547.21
 12.0403  3786.45
 12.1838  3911.39
 12.3272  3963.82
 12.4707  4185.04
 12.6141  4152.66
 12.7576  4258.28
 12.9011  4260.75
 13.0445  4366.61
 13.188  4094.08
 13.3314  4026.03
 13.4749  4097.06
 13.6184  4139.77
 13.7618  4033.87
 13.9053  4034.93
 14.0487  3961.45
 14.1922  3951.54
 14.3357  3850.16
 14.4791  3666.36
 14.6226  3666.3
 14.766  3654.14
 14.9095  3633.54
 15.053  3677.34
 15.1964  3667.51
 15.3399  3604.57
 15.4833  3518.28
 15.6268  3542.09
 15.7702  3520.71
 15.9137  3493.24
 16.0572  3558.89
 16.2006  3606.13
 16.3441  3519
 16.4875  3498.02
 16.631  3444.96
 16.7745  3431.74
 16.9179  3448.4
 17.0614  3388.46
 17.2048  3286.48
 17.3483  3195.29
 17.4918  3192.05
 17.6352  3183.28
 17.7787  3204.14
 17.9221  3219.84
 18.0656  3228.76
 18.209  3206.38
 18.3525  3204.11
 18.496  3195.9
 18.6394  3203.11
 18.7829  3158.11
 18.9263  3139.66
 19.0698  3103.1
 19.2133  3087.74
 19.3567  3074.09
 19.5002  3079.12
 19.6436  3063.26
 19.7871  3029.06
 19.9306  2972.06
 20.074  2928.76
 20.2175  2913.56
 20.3609  2919.98
 20.5044  2919.66
 20.6479  2933.4
 20.7913  2921.19
 20.9348  2915.91
 21.0782  2916.22
 21.2217  2910.43
 21.3651  2892.8
 21.5086  2875.91
 21.6521  2850.48
 21.7955  2822.96
 21.939  2803.88
 22.0824  2733.88
 22.2259  2719.86
 22.3694  2726.79
 22.5128  2727.81
 22.6563  2721.95
 22.7997  2705.64
 22.9432  2696.35
 23.0867  2695.93
 23.2301  2688.99
 23.3736  2681.06
 23.517  2682.21
 23.6605  2675.77
 23.804  2675.41
 23.9474  2664.29
 24.0909  2657.44
 24.2343  2648.92
 24.3778  2636
 24.5212  2624.18
 24.6647  2611.95
 24.8082  2597.1
 24.9516  2589.37
 25.0951  2575.26
 25.2385  2567.28
 25.382  2556.43
 25.5255  2549.42
 25.6689  2542.36
 25.8124  2534.12
 25.9558  2534.78
 26.0993  2527.72
 26.2428  2524.93
 26.3862  2516.7
 26.5297  2509.73
 26.6731  2499.71
 26.8166  2490.88
 26.9601  2483.32
 27.1035  2474.02
 27.247  2466.53
 27.3904  2453.49
 27.5339  2453.44
 27.6773  2446.59
 27.8208  2434.4
 27.9643  2426.5
 28.1077  2415.53
 28.2512  2367.58
 28.3946  2299.85
 28.5381  2347.03
 28.6816  2353.84
 28.825  2356.35
 28.9685  2361.38
 29.1119  2354.38
 29.2554  2351.43
 29.3989  2349.81
 29.5423  2303.53
 29.6858  2308.71
 29.8292  2313.47
 29.9727  2304.9
 30.1162  2299.5
 30.2596  2296.73
 30.4031  2296.89
 30.5465  2294.46
 30.69  2285.79
 30.8334  2279.36
 30.9769  2273.62
 31.1204  2272.31
 31.2638  2265.39
 31.4073  2262.53
 31.5507  2258.94
 31.6942  2255.71
 31.8377  2252.53
 31.9811  2236.37
 32.1246  2241.69
 32.268  2236
 32.4115  2227.41
 32.555  2225.3
 32.6984  2225.73
 32.8419  2230.21
 32.9853  2231.5
 33.1288  2230.34
 33.2722  2227.32
 33.4157  2226.06
 33.5592  2224.8
 33.7026  2220.87
 33.8461  2228.5
 33.9895  2231.43
 34.133  2239.04
 34.2765  2240.03
 34.4199  2235.35
 34.5634  2232.3
 34.7068  2134.41
 34.8503  2135.04
 34.9938  2154
 35.1372  2163.32
 35.2807  2171.02
 35.4241  2164.36
 35.5676  2164.81
 35.7111  2156.43
 35.8545  2156.59
 35.998  2149.48
 36.1414  2148.77
 36.2849  2143.33
 36.4283  2137.86
 36.5718  2132.32
 36.7153  2129.26
 36.8587  2123.25
 37.0022  2118.69
 37.1456  2113.52
 37.2891  2121.15
 37.4326  2105.31
 37.576  2104.19
 37.7195  2101.15
 37.8629  2092.8
 38.0064  2088.32
 38.1499  2080.29
 38.2933  2077.95
 38.4368  2077.55
 38.5802  2071.15
 38.7237  2062.55
 38.8671  2050.96
 39.0106  2049.94
 39.1541  2049.07
 39.2975  2044.35
 39.441  2037.91
 39.5844  2016.95
 39.7279  2012
 39.8714  1988.26
 40.0148  1981.85
 40.1583  1955.67
 40.3017  1933.43
 40.4452  1913.88
 40.5887  1875.26
 40.7321  1834.63
 40.8756  1760.7
 41.019  1914.97
 41.1625  1950.12
 41.306  1888.27
 41.4494  1809.99
 41.5929  1634.53
 41.7363  1299.54
 41.8798  430.071
 41.9618 -1.17926