File: doc/examples/KFe2As2-00838_fit2d_corr_on.chi
D:\workspace\KFe2As2-00838.tif: 2-theta Scan
2-Theta Angle (Degrees)

       1662
 0.13886  1620.37
 0.290344  4190.02
 0.441828  11295.6
 0.593312  10815.3
 0.744796  11059.6
 0.89628  72627
 1.04776  9290.33
 1.19925  8113.11
 1.35073  7390.21
 1.50222  6853.86
 1.6537  17201.2
 1.80518  7551.98
 1.95667  8291.68
 2.10815  93476.8
 2.25963  12950.3
 2.41112  21623.5
 2.5626  8135.44
 2.71409  10498.2
 2.86557  39488.7
 3.01705  12729.6
 3.16854  22117
 3.32002  18393.5
 3.47151  30691.4
 3.62299  17244.8
 3.77447  12764.2
 3.92596  11830.2
 4.07744  4946.45
 4.22893  7208.56
 4.38041  7375.31
 4.53189  15448.2
 4.68338  8836.91
 4.83486  17821.8
 4.98634  9415.06
 5.13783  10526.2
 5.28931  8451.61
 5.4408  18854.9
 5.59228  7445.23
 5.74376  21275
 5.89525  8563.42
 6.04673  9480.84
 6.19822  6627.16
 6.3497  8133.33
 6.50118  7782.57
 6.65267  10265
 6.80415  9300.44
 6.95564  6164.1
 7.10712  8064.26
 7.2586  8719.79
 7.41009  8281.6
 7.56157  5761.19
 7.71305  5555.78
 7.86454  6240.28
 8.01602  8181.92
 8.16751  8497.71
 8.31899  6612.7
 8.47047  8374.14
 8.62196  6908.84
 8.77344  6449.38
 8.92493  5110.62
 9.07641  5461.01
 9.22789  5333.53
 9.37938  4837.02
 9.53086  6484.95
 9.68235  5361.16
 9.83383  5713.47
 9.98531  5273.16
 10.1368  5633.39
 10.2883  5701.36
 10.4398  5108.03
 10.5912  4321.55
 10.7427  4405.51
 10.8942  5205.73
 11.0457  5415.5
 11.1972  4746.9
 11.3487  4786.96
 11.5002  5340.34
 11.6516  5018.34
 11.8031  4876.51
 11.9546  4230.92
 12.1061  3812.01
 12.2576  3989.3
 12.4091  4105.52
 12.5605  4209.14
 12.712  4249.59
 12.8635  4226.89
 13.015  4369.82
 13.1665  4163.92
 13.318  4020.39
 13.4694  4090.85
 13.6209  4137.25
 13.7724  4020.57
 13.9239  4032.06
 14.0754  3983.42
 14.2269  3944.8
 14.3783  3811.6
 14.5298  3654.07
 14.6813  3643.77
 14.8328  3696.83
 14.9843  3676.55
 15.1358  3645.57
 15.2873  3593.24
 15.4387  3524.02
 15.5902  3531.98
 15.7417  3526.09
 15.8932  3498.32
 16.0447  3552.57
 16.1962  3601.75
 16.3476  3517.46
 16.4991  3487.48
 16.6506  3455.07
 16.8021  3430.8
 16.9536  3430.33
 17.1051  3363.02
 17.2565  3251
 17.408  3187.77
 17.5595  3177.82
 17.711  3200.35
 17.8625  3210.71
 18.014  3236.21
 18.1654  3210.89
 18.3169  3207.23
 18.4684  3197.09
 18.6199  3197.5
 18.7714  3162.82
 18.9229  3138.57
 19.0743  3104.1
 19.2258  3085.56
 19.3773  3075.54
 19.5288  3073.65
 19.6803  3055.28
 19.8318  3012.03
 19.9833  2958.28
 20.1347  2908.61
 20.2862  2919.29
 20.4377  2917.7
 20.5892  2933.2
 20.7407  2921.02
 20.8922  2918.17
 21.0436  2916.68
 21.1951  2913.83
 21.3466  2894.26
 21.4981  2876.48
 21.6496  2851.37
 21.8011  2821.51
 21.9525  2800.47
 22.104  2727.23
 22.2555  2721.34
 22.407  2727.1
 22.5585  2727.12
 22.71  2714.29
 22.8614  2700.54
 23.0129  2691.8
 23.1644  2688.06
 23.3159  2677.16
 23.4674  2682.05
 23.6189  2676.66
 23.7703  2675
 23.9218  2666.13
 24.0733  2656.51
 24.2248  2648.4
 24.3763  2635.47
 24.5278  2621.02
 24.6793  2610.12
 24.8307  2595.18
 24.9822  2586.3
 25.1337  2573.29
 25.2852  2561.77
 25.4367  2553.99
 25.5882  2545.24
 25.7396  2540.63
 25.8911  2535.62
 26.0426  2529
 26.1941  2523.29
 26.3456  2521.08
 26.4971  2510.29
 26.6485  2501.72
 26.8  2491.61
 26.9515  2482.61
 27.103  2473.33
 27.2545  2466.47
 27.406  2452.58
 27.5574  2450.03
 27.7089  2441.15
 27.8604  2431.67
 28.0119  2423.5
 28.1634  2402.35
 28.3149  2339.82
 28.4663  2334.43
 28.6178  2352.44
 28.7693  2356.64
 28.9208  2355.51
 29.0723  2352.82
 29.2238  2350.64
 29.3753  2349.47
 29.5267  2307.42
 29.6782  2308.98
 29.8297  2312.43
 29.9812  2302.8
 30.1327  2299.68
 30.2842  2295.11
 30.4356  2296.17
 30.5871  2284.91
 30.7386  2278.59
 30.8901  2274.9
 31.0416  2271.93
 31.1931  2270.78
 31.3445  2263.42
 31.496  2258.68
 31.6475  2256.55
 31.799  2252.41
 31.9505  2231.58
 32.102  2239.04
 32.2534  2234.14
 32.4049  2225.24
 32.5564  2225.34
 32.7079  2223.43
 32.8594  2223.67
 33.0109  2224.17
 33.1624  2231.42
 33.3138  2224.88
 33.4653  2226.23
 33.6168  2222.82
 33.7683  2219.92
 33.9198  2227.74
 34.0713  2222.65
 34.2227  2234.14
 34.3742  2235.52
 34.5257  2230.24
 34.6772  2179.53
 34.8287  2130.89
 34.9802  2152.98
 35.1316  2162.71
 35.2831  2168.03
 35.4346  2163.7
 35.5861  2158.94
 35.7376  2161.02
 35.8891  2152.36
 36.0405  2145.13
 36.192  2148.61
 36.3435  2138.05
 36.495  2129.93
 36.6465  2130.04
 36.798  2124.02
 36.9494  2117.25
 37.1009  2114.15
 37.2524  2115.01
 37.4039  2103.73
 37.5554  2104.99
 37.7069  2097.64
 37.8583  2091.72
 38.0098  2088.16
 38.1613  2084.22
 38.3128  2074.34
 38.4643  2068.85
 38.6158  2030.26
 38.7673  2058.04
 38.9187  2051.12
 39.0702  2053.63
 39.2217  2045.7
 39.3732  2021.88
 39.5247  2019.58
 39.6762  2012.29
 39.8276  1991.81
 39.9791  1988.2
 40.1306  1957.57
 40.2821  1931.47
 40.4336  1912.24
 40.5851  1869.68
 40.7365  1834.98
 40.888  1747.6
 41.0395  1958.84
 41.191  1906.67
 41.3425  1864.29
 41.494  1747.54
 41.6454  1548.65
 41.7969  762.896
 41.9484 -2.97277